#共有30阶固有频率(Hz)。后三列分别是密度(kg/m3)，弹性模量(GPa)和转速(r/min) 
    815.16      815.45      866.99     1167.00     1167.10     1359.80     2232.00     2232.10     2597.80     2597.90     3350.60     3366.60     3572.20     3572.70     3582.10     3641.10     3641.30     3933.10     3933.20     4476.00     4477.30     4590.80     4600.30     4632.80     5122.10     5122.40     5617.50     5617.70     5630.80     5632.10  6.850070006626758186e+03 1.410963566855351417e+02 1.494756345525461256e+04 
    846.41      846.72      895.19     1212.80     1212.90     1405.30     2311.90     2312.00     2681.50     2681.70     3467.00     3483.60     3692.20     3692.80     3701.00     3762.10     3762.20     4066.00     4066.20     4629.20     4630.60     4746.20     4756.20     4786.70     5291.80     5292.30     5807.30     5807.60     5821.70     5823.40  8.545250591679412537e+03 1.876635557526870457e+02 1.643556345525461074e+04 
    763.23      763.57      787.57     1097.90     1098.00     1241.10     2062.60     2062.60     2355.80     2356.00     3078.70     3093.10     3262.90     3263.40     3264.60     3318.70     3318.80     3596.10     3596.10     4101.20     4102.50     4198.40     4206.80     4221.10     4665.20     4665.50     5133.90     5134.00     5150.10     5151.00  7.940331337166559933e+03 1.350102505635900627e+02 1.792356345525461438e+04 
    763.92      764.40      777.66     1101.30     1101.40     1228.00     2052.60     2052.70     2324.10     2324.20     3056.10     3070.20     3228.30     3230.00     3230.50     3281.90     3282.00     3561.40     3561.50     4065.70     4067.00     4158.30     4166.60     4173.80     4612.30     4612.50     5083.40     5083.50     5101.40     5102.20  8.599531337166559751e+03 1.425515034011471016e+02 1.941156345525461438e+04 
    740.46      745.10      745.86     1076.80     1076.90     1175.60     1982.70     1982.70     2213.70     2213.90     2940.00     2953.30     3087.20     3093.90     3094.40     3138.60     3138.80     3413.80     3413.90     3903.20     3904.40     3986.50     3990.80     3994.40     4408.80     4409.10     4871.10     4871.20     4891.30     4891.80  9.258731337166558660e+03 1.396616214943319676e+02 2.089956345525461074e+04 
    860.84      861.17      904.07     1234.90     1235.00     1420.70     2344.10     2344.20     2707.20     2707.40     3510.70     3527.40     3733.70     3734.20     3740.70     3802.40     3802.60     4112.70     4112.80     4684.70     4686.00     4800.90     4810.90     4837.90     5348.10     5348.50     5873.60     5873.70     5889.10     5890.90  7.226850591679411991e+03 1.618902505635900582e+02 1.780103652976177909e+04 
    794.30      794.69      815.12     1143.60     1143.70     1285.60     2141.50     2141.50     2437.50     2437.60     3193.30     3208.20     3380.60     3381.00     3381.10     3437.00     3437.20     3726.50     3726.60     4251.80     4253.00     4350.80     4359.60     4371.70     4831.40     4831.80     5319.80     5319.90     5337.50     5338.50  8.827670006626758550e+03 1.607835557526870502e+02 1.928903652976177909e+04 
    855.34      855.77      877.72     1231.50     1231.60     1384.40     2306.10     2306.20     2624.80     2624.90     3438.80     3454.90     3640.50     3640.90     3641.10     3701.20     3701.40     4013.00     4013.20     4578.80     4580.10     4685.40     4695.00     4708.20     5203.40     5203.80     5729.40     5729.50     5748.20     5749.80  7.886050591679411809e+03 1.665416214943319630e+02 2.077703652976177909e+04 
    827.82      828.92      834.13     1196.30     1196.40     1318.90     2215.10     2215.10     2489.50     2489.70     3290.90     3306.00     3465.40     3470.20     3470.70     3523.00     3523.20     3827.80     3827.90     4373.60     4374.80     4469.70     4478.60     4480.60     4950.70     4951.10     5463.00     5463.20     5484.00     5485.10  9.204450591679411446e+03 1.753302505635900559e+02 2.226503652976177909e+04 
    714.91      715.21      740.97     1027.70     1027.80     1166.80     1935.60     1935.60     2217.00     2217.10     2891.60     2905.10     3067.20     3067.70     3069.80     3120.60     3120.80     3379.90     3380.00     3853.40     3854.60     3945.80     3953.70     3969.20     4386.90     4387.20     4825.40     4825.40     4840.30     4840.80  9.863650591679412173e+03 1.484502505635900604e+02 1.631303652976177909e+04 
    857.24      857.58      893.80     1231.10     1231.20     1406.20     2327.00     2327.10     2675.40     2675.60     3480.40     3496.90     3696.20     3696.80     3701.10     3762.30     3762.40     4072.30     4072.50     4641.10     4642.50     4754.10     4764.00     4786.50     5290.80     5291.30     5815.30     5815.60     5831.80     5833.60  6.991811833484834096e+03 1.531016214943319653e+02 1.875848787655557317e+04 
    899.19      899.56      933.80     1292.20     1292.30     1470.00     2436.70     2436.80     2794.50     2794.70     3641.80     3659.10     3864.60     3865.10     3868.70     3932.50     3932.70     4258.40     4258.60     4854.70     4856.20     4971.60     4982.00     5003.10     5530.10     5530.60     6081.10     6081.30     6098.80     6100.80  7.651011833484833915e+03 1.828715034011470948e+02 2.024648787655557317e+04 
    816.38      817.25      823.96     1179.10     1179.20     1302.70     2185.90     2185.90     2460.10     2460.30     3248.80     3263.80     3423.10     3427.30     3427.80     3480.00     3480.10     3780.20     3780.30     4318.50     4319.70     4414.00     4422.80     4425.80     4890.30     4890.70     5395.20     5395.30     5415.60     5416.70  8.310211833484834642e+03 1.545363566855351394e+02 2.173448787655557317e+04 
    759.00      759.29      796.58     1088.90     1089.00     1251.90     2066.10     2066.20     2385.10     2385.20     3093.80     3108.50     3289.90     3290.40     3295.70     3350.20     3350.40     3623.80     3623.90     4127.80     4129.10     4230.20     4238.80     4261.80     4711.10     4711.40     5174.50     5174.60     5188.60     5189.60  8.969411833484835370e+03 1.559915034011470993e+02 1.578248787655557135e+04 
    773.05      773.37      803.71     1110.70     1110.80     1265.00     2095.80     2095.90     2405.20     2405.40     3132.80     3147.60     3325.20     3325.70     3328.80     3383.80     3384.00     3663.80     3663.90     4176.20     4177.50     4277.20     4285.80     4304.40     4757.70     4758.00     5231.10     5231.20     5246.70     5247.70  9.486870006626757458e+03 1.679763566855351087e+02 1.727048787655557317e+04 
    924.75      925.11      966.18     1327.70     1327.80     1519.60     2512.60     2512.70     2892.30     2892.60     3759.50     3777.30     3994.20     3994.70     4000.30     4066.30     4066.40     4400.40     4400.50     5014.40     5015.90     5137.10     5147.90     5173.00     5718.30     5718.90     6284.40     6284.90     6301.80     6303.90  6.621931337166559388e+03 1.694315034011470971e+02 1.992653666544389489e+04 
    832.97      833.54      846.12     1201.30     1201.40     1336.60     2236.20     2236.20     2528.30     2528.40     3328.00     3343.40     3513.50     3515.90     3516.40     3571.80     3571.90     3877.00     3877.10     4426.80     4428.10     4526.80     4535.90     4543.00     5020.20     5020.60     5534.00     5534.10     5553.80     5555.20  7.509270006626758004e+03 1.473435557526870525e+02 2.141453666544389489e+04 
    830.66      830.96      882.24     1189.40     1189.60     1384.00     2273.10     2273.10     2643.30     2643.50     3411.30     3427.70     3636.00     3636.50     3645.70     3705.80     3706.00     4003.50     4003.70     4556.60     4558.00     4673.10     4682.90     4715.20     5213.10     5213.50     5718.30     5718.50     5731.80     5733.50  8.168470006626757822e+03 1.742235557526870480e+02 1.546253666544389489e+04 
    895.67      895.99      949.76     1282.90     1283.00     1490.30     2449.30     2449.40     2845.40     2845.60     3674.80     3692.40     3915.60     3916.10     3925.80     3990.40     3990.50     4311.70     4311.80     4908.00     4909.60     5032.90     5043.50     5077.30     5613.50     5613.90     6158.60     6159.10     6173.30     6175.60  7.281131337166559206e+03 1.799816214943319608e+02 1.695053666544389489e+04 
    800.96      801.30      829.06     1151.60     1151.70     1305.80     2167.40     2167.40     2480.50     2480.60     3237.20     3252.40     3432.90     3433.40     3435.60     3492.40     3492.60     3783.10     3783.20     4313.70     4314.90     4416.60     4425.60     4442.60     4910.30     4910.60     5401.30     5401.40     5418.00     5419.00  9.628611833484834278e+03 1.814163566855351348e+02 1.843853666544389489e+04 
    970.57      970.97     1009.80     1394.40     1394.50     1589.20     2632.30     2632.40     3022.20     3022.50     3935.60     3954.30     4177.90     4178.50     4183.10     4252.10     4252.20     4603.50     4603.60     5247.50     5249.00     5374.50     5385.90     5409.50     5979.50     5980.50     6574.90     6575.10     6593.30     6595.90  6.920440351719104001e+03 1.934216214943319585e+02 2.157338234732710407e+04 
    909.04      909.35      972.24     1300.20     1300.30     1523.60     2495.30     2495.40     2914.00     2914.20     3749.80     3767.80     4002.10     4002.70     4015.10     4081.10     4081.20     4405.80     4405.90     5012.10     5013.60     5142.50     5153.40     5192.70     5741.50     5742.10     6293.90     6294.30     6307.40     6309.50  7.579640351719103819e+03 1.963115034011470925e+02 1.562138234732710407e+04 
    866.11      866.43      914.36     1241.40     1241.50     1435.80     2363.80     2363.90     2738.70     2738.90     3543.70     3560.60     3772.60     3773.20     3781.10     3843.40     3843.60     4154.80     4155.00     4731.00     4732.30     4850.00     4860.10     4890.20     5406.20     5406.80     5934.20     5934.40     5948.90     5950.90  8.238840351719103637e+03 1.887702505635900536e+02 1.710938234732710407e+04 
    868.43      868.77      908.07     1246.60     1246.70     1428.00     2360.30     2360.40     2718.50     2718.70     3532.10     3548.90     3753.30     3753.80     3759.10     3821.10     3821.20     4134.80     4134.90     4711.40     4712.70     4826.90     4837.00     4861.50     5373.90     5374.50     5904.90     5905.10     5921.00     5923.00  8.898040351719104365e+03 2.011035557526870434e+02 1.859738234732710407e+04 
    838.46      838.86      862.41     1206.70     1206.80     1359.70     2262.80     2262.90     2579.30     2579.50     3375.70     3391.50     3575.40     3575.90     3576.50     3635.70     3635.80     3940.90     3941.10     4495.70     4497.00     4601.10     4610.50     4624.80     5111.30     5111.70     5626.40     5626.60     5644.70     5646.00  9.557240351719103273e+03 1.948563566855351326e+02 2.008538234732710407e+04 
